Far-field amplitude, Eprincipal: Linear, Tau = 0.000  deg
Gain = None  Max far-field (global) = -65.51823  dB, Max far-field (plot) = -65.51823  dB
Normalization: None, Network offset = 0.000  dB
Hpeak at: -0.00001  deg, Vpeak at: 0.000  deg
Plot centering: On
Directivity = 234.482  dB


2R_u2_hpol_1-20G

NSI2000 V4.8.6, Filename:C:\Users\Kabourek\Prusa\R100_horn_emi_H.NSI
Measurement date/time: 4/11/2017 2:58:59 PM, Filetype: NSI-97
Far-field Cut Analysis: 
Far-field display setup
   Theta (deg)
     Span = 360.00001  deg, Center = 0.000  deg, #pts = 361    
     Start= -180.00001  deg, Stop = 180.00001  deg, Delta = 1.000  deg
   Phi (deg)
     Center = 0.000  deg, #pts = 1    

Selected beam(s) 1 of 9
Beam    Frequency        Azimuth  Phi  Pol
----    ---------        -------  ---  ---
5       10.0000000  GHz  Azimuth  Phi     Single-pol

Measured data:
   Theta (deg)
     Span = 360.00001  deg, Center = 0.000  deg, #pts = 361    
     Start= -180.00001  deg, Stop = 180.00001  deg, Delta = 1.000  deg
   Phi (deg)
     Center = 0.000  deg, #pts = 1    
   Far-field distance: 3.000  m

Measurement type: FF Spherical Theta-Phi
Scan options: CV On, CP On, Bi-dir Off, H-scan 
Beamset smear: 0.45523  deg

RF system:
Integration time: 10.000 mSec
Scan speed: 4.000  deg/sec
Drift during scan (final - initial)
Amp/Phase initial =  -66.59  dB,  80.6  deg
Amp/Phase drift   =  -0.02  dB,  -0.2  deg


   Theta (deg)  Phi (deg)    Amp      Phase   P-pol Data starts on next line:
 -180.000     0.000   -89.710   105.195
 -179.000     0.000   -89.451   104.175
 -178.000     0.000   -90.294   103.712
 -177.000     0.000   -90.433   101.996
 -176.000     0.000   -90.704   100.141
 -175.000     0.000   -91.115    97.637
 -174.000     0.000   -91.812    95.230
 -173.000     0.000   -92.395    91.797
 -172.000     0.000   -93.241    84.562
 -171.000     0.000   -93.917    81.722
 -170.000     0.000   -94.234    74.919
 -169.000     0.000   -94.695    68.254
 -168.000     0.000   -95.445    60.407
 -167.000     0.000   -94.858    51.982
 -166.000     0.000   -94.625    45.746
 -165.000     0.000   -93.843    43.893
 -164.000     0.000   -93.233    38.711
 -163.000     0.000   -93.104    38.916
 -162.000     0.000   -92.162    38.576
 -161.000     0.000   -91.704    42.787
 -160.000     0.000   -91.265    46.422
 -159.000     0.000   -91.023    50.568
 -158.000     0.000   -90.632    56.338
 -157.000     0.000   -90.625    64.526
 -156.000     0.000   -90.377    71.011
 -155.000     0.000   -90.126    77.432
 -154.000     0.000   -90.435    85.799
 -153.000     0.000   -90.449    91.782
 -152.000     0.000   -90.496    98.293
 -151.000     0.000   -90.786   102.632
 -150.000     0.000   -90.913   106.310
 -149.000     0.000   -91.570   107.226
 -148.000     0.000   -91.632   105.838
 -147.000     0.000   -92.158   105.836
 -146.000     0.000   -91.872   101.463
 -145.000     0.000   -91.575    97.647
 -144.000     0.000   -91.360    94.053
 -143.000     0.000   -90.531    92.190
 -142.000     0.000   -90.088    91.030
 -141.000     0.000   -89.807    90.205
 -140.000     0.000   -89.862    87.970
 -139.000     0.000   -90.078    88.829
 -138.000     0.000   -90.318    89.070
 -137.000     0.000   -91.246    89.830
 -136.000     0.000   -92.777    90.342
 -135.000     0.000   -94.206    90.019
 -134.000     0.000   -95.996    88.475
 -133.000     0.000   -97.750    93.503
 -132.000     0.000   -99.915    95.620
 -131.000     0.000  -101.565   116.702
 -130.000     0.000  -101.880   142.935
 -129.000     0.000   -99.155   174.261
 -128.000     0.000   -97.677  -170.402
 -127.000     0.000   -94.396  -156.477
 -126.000     0.000   -92.354  -151.840
 -125.000     0.000   -90.813  -146.485
 -124.000     0.000   -90.235  -146.129
 -123.000     0.000   -89.655  -144.633
 -122.000     0.000   -89.404  -144.172
 -121.000     0.000   -89.742  -144.986
 -120.000     0.000   -90.000  -148.564
 -119.000     0.000   -90.628  -154.183
 -118.000     0.000   -90.803  -159.632
 -117.000     0.000   -90.829  -166.663
 -116.000     0.000   -90.827  -173.483
 -115.000     0.000   -90.919  -173.113
 -114.000     0.000   -90.687  -173.470
 -113.000     0.000   -90.783  -170.789
 -112.000     0.000   -91.422  -166.978
 -111.000     0.000   -92.241  -164.978
 -110.000     0.000   -92.816  -157.094
 -109.000     0.000   -93.135  -154.915
 -108.000     0.000   -93.411  -150.246
 -107.000     0.000   -93.978  -147.859
 -106.000     0.000   -93.954  -145.608
 -105.000     0.000   -94.093  -143.862
 -104.000     0.000   -94.426  -143.971
 -103.000     0.000   -93.933  -143.780
 -102.000     0.000   -94.699  -144.209
 -101.000     0.000   -94.889  -149.232
 -100.000     0.000   -94.715  -151.489
  -99.000     0.000   -95.212  -159.004
  -98.000     0.000   -95.409  -163.051
  -97.000     0.000   -96.592  -168.962
  -96.000     0.000   -96.724  -179.277
  -95.000     0.000   -98.015   166.213
  -94.000     0.000   -98.107   150.669
  -93.000     0.000   -97.640   129.741
  -92.000     0.000   -95.907   112.537
  -91.000     0.000   -94.504    99.814
  -90.000     0.000   -92.716    91.941
  -89.000     0.000   -91.366    84.896
  -88.000     0.000   -90.781    80.834
  -87.000     0.000   -90.041    76.262
  -86.000     0.000   -89.555    70.257
  -85.000     0.000   -89.000    62.565
  -84.000     0.000   -88.676    55.499
  -83.000     0.000   -88.075    47.858
  -82.000     0.000   -87.374    41.850
  -81.000     0.000   -86.672    35.698
  -80.000     0.000   -86.154    32.453
  -79.000     0.000   -85.844    28.451
  -78.000     0.000   -85.604    24.791
  -77.000     0.000   -85.558    19.920
  -76.000     0.000   -85.422    15.151
  -75.000     0.000   -85.237    10.952
  -74.000     0.000   -85.056     6.557
  -73.000     0.000   -85.053     2.026
  -72.000     0.000   -84.878    -1.388
  -71.000     0.000   -84.757    -5.179
  -70.000     0.000   -84.668    -9.938
  -69.000     0.000   -84.534   -13.953
  -68.000     0.000   -84.346   -17.664
  -67.000     0.000   -84.187   -21.371
  -66.000     0.000   -84.159   -25.621
  -65.000     0.000   -83.914   -29.255
  -64.000     0.000   -83.758   -33.063
  -63.000     0.000   -83.520   -36.236
  -62.000     0.000   -83.402   -39.556
  -61.000     0.000   -83.493   -42.354
  -60.000     0.000   -83.682   -46.279
  -59.000     0.000   -83.842   -51.596
  -58.000     0.000   -84.028   -57.341
  -57.000     0.000   -84.124   -66.338
  -56.000     0.000   -83.888   -73.388
  -55.000     0.000   -83.421   -80.728
  -54.000     0.000   -82.975   -87.367
  -53.000     0.000   -82.450   -92.461
  -52.000     0.000   -82.201   -95.675
  -51.000     0.000   -81.960   -98.634
  -50.000     0.000   -81.977  -101.603
  -49.000     0.000   -82.215  -104.797
  -48.000     0.000   -82.630  -109.683
  -47.000     0.000   -83.052  -114.800
  -46.000     0.000   -83.372  -121.723
  -45.000     0.000   -83.426  -128.645
  -44.000     0.000   -83.502  -135.598
  -43.000     0.000   -83.291  -141.904
  -42.000     0.000   -83.011  -147.585
  -41.000     0.000   -82.809  -152.018
  -40.000     0.000   -82.629  -156.427
  -39.000     0.000   -82.549  -160.180
  -38.000     0.000   -82.118  -164.365
  -37.000     0.000   -81.807  -167.695
  -36.000     0.000   -81.503  -171.034
  -35.000     0.000   -81.017  -171.973
  -34.000     0.000   -80.552  -172.384
  -33.000     0.000   -80.217  -172.391
  -32.000     0.000   -80.050  -170.100
  -31.000     0.000   -79.901  -167.166
  -30.000     0.000   -79.943  -163.553
  -29.000     0.000   -80.019  -159.462
  -28.000     0.000   -80.259  -154.322
  -27.000     0.000   -80.620  -148.033
  -26.000     0.000   -81.009  -141.354
  -25.000     0.000   -81.453  -133.542
  -24.000     0.000   -81.768  -123.566
  -23.000     0.000   -81.972  -113.758
  -22.000     0.000   -81.732  -102.728
  -21.000     0.000   -81.245   -91.824
  -20.000     0.000   -80.436   -82.593
  -19.000     0.000   -79.356   -73.994
  -18.000     0.000   -78.104   -66.779
  -17.000     0.000   -76.876   -60.642
  -16.000     0.000   -75.636   -56.159
  -15.000     0.000   -74.376   -51.584
  -14.000     0.000   -73.222   -48.177
  -13.000     0.000   -72.166   -44.895
  -12.000     0.000   -71.144   -41.820
  -11.000     0.000   -70.212   -39.231
  -10.000     0.000   -69.370   -36.736
   -9.000     0.000   -68.633   -34.779
   -8.000     0.000   -67.944   -32.753
   -7.000     0.000   -67.384   -31.117
   -6.000     0.000   -66.878   -29.522
   -5.000     0.000   -66.448   -28.467
   -4.000     0.000   -66.125   -27.514
   -3.000     0.000   -65.845   -26.933
   -2.000     0.000   -65.685   -26.599
   -1.000     0.000   -65.555   -26.659
    0.000     0.000   -65.518   -26.930
    1.000     0.000   -65.539   -27.527
    2.000     0.000   -65.656   -28.451
    3.000     0.000   -65.832   -29.541
    4.000     0.000   -66.104   -30.966
    5.000     0.000   -66.430   -32.631
    6.000     0.000   -66.848   -34.627
    7.000     0.000   -67.357   -36.840
    8.000     0.000   -67.915   -39.430
    9.000     0.000   -68.597   -42.148
   10.000     0.000   -69.358   -45.386
   11.000     0.000   -70.219   -48.567
   12.000     0.000   -71.118   -52.017
   13.000     0.000   -72.111   -55.778
   14.000     0.000   -73.276   -60.043
   15.000     0.000   -74.421   -64.783
   16.000     0.000   -75.661   -69.510
   17.000     0.000   -76.950   -75.067
   18.000     0.000   -78.186   -81.025
   19.000     0.000   -79.347   -88.121
   20.000     0.000   -80.436   -96.474
   21.000     0.000   -81.323  -105.702
   22.000     0.000   -81.800  -115.488
   23.000     0.000   -82.122  -125.978
   24.000     0.000   -82.129  -135.110
   25.000     0.000   -81.794  -145.214
   26.000     0.000   -81.650  -153.691
   27.000     0.000   -81.208  -161.965
   28.000     0.000   -80.864  -168.907
   29.000     0.000   -80.610  -175.781
   30.000     0.000   -80.396   178.337
   31.000     0.000   -80.419   173.321
   32.000     0.000   -80.507   168.725
   33.000     0.000   -80.759   164.929
   34.000     0.000   -81.012   162.690
   35.000     0.000   -81.605   160.471
   36.000     0.000   -82.124   160.598
   37.000     0.000   -82.622   161.805
   38.000     0.000   -83.115   164.156
   39.000     0.000   -83.577   167.177
   40.000     0.000   -83.971   171.485
   41.000     0.000   -84.162   173.910
   42.000     0.000   -84.587   178.032
   43.000     0.000   -84.898  -177.436
   44.000     0.000   -85.087  -172.731
   45.000     0.000   -85.190  -166.161
   46.000     0.000   -85.077  -160.273
   47.000     0.000   -84.713  -154.858
   48.000     0.000   -84.231  -149.544
   49.000     0.000   -83.817  -147.239
   50.000     0.000   -83.394  -146.780
   51.000     0.000   -83.296  -145.312
   52.000     0.000   -83.253  -145.393
   53.000     0.000   -83.568  -145.242
   54.000     0.000   -84.159  -144.504
   55.000     0.000   -84.867  -143.250
   56.000     0.000   -85.829  -139.664
   57.000     0.000   -86.504  -134.154
   58.000     0.000   -87.133  -127.315
   59.000     0.000   -87.241  -121.157
   60.000     0.000   -87.367  -114.383
   61.000     0.000   -86.880  -110.727
   62.000     0.000   -86.788  -110.117
   63.000     0.000   -86.741  -110.156
   64.000     0.000   -86.983  -112.683
   65.000     0.000   -87.119  -112.852
   66.000     0.000   -87.409  -112.970
   67.000     0.000   -87.632  -113.210
   68.000     0.000   -87.906  -110.914
   69.000     0.000   -87.988  -108.690
   70.000     0.000   -88.208  -105.043
   71.000     0.000   -88.146  -103.501
   72.000     0.000   -88.051   -99.918
   73.000     0.000   -87.977   -95.743
   74.000     0.000   -87.750   -93.749
   75.000     0.000   -87.581   -90.403
   76.000     0.000   -87.557   -85.707
   77.000     0.000   -87.603   -83.761
   78.000     0.000   -87.629   -82.226
   79.000     0.000   -87.893   -79.692
   80.000     0.000   -88.239   -77.184
   81.000     0.000   -88.654   -73.263
   82.000     0.000   -89.278   -70.071
   83.000     0.000   -90.106   -68.618
   84.000     0.000   -90.786   -63.814
   85.000     0.000   -91.532   -62.676
   86.000     0.000   -92.660   -59.955
   87.000     0.000   -93.191   -57.528
   88.000     0.000   -93.711   -57.419
   89.000     0.000   -94.862   -61.597
   90.000     0.000   -95.667   -68.249
   91.000     0.000   -95.776   -77.491
   92.000     0.000   -96.179   -89.050
   93.000     0.000   -95.702   -99.412
   94.000     0.000   -94.799  -103.988
   95.000     0.000   -94.262  -111.933
   96.000     0.000   -93.701  -113.585
   97.000     0.000   -92.800  -116.004
   98.000     0.000   -92.300  -117.746
   99.000     0.000   -91.566  -118.163
  100.000     0.000   -91.040  -117.936
  101.000     0.000   -90.965  -117.643
  102.000     0.000   -91.220  -118.291
  103.000     0.000   -91.393  -116.950
  104.000     0.000   -91.753  -117.956
  105.000     0.000   -92.023  -120.068
  106.000     0.000   -92.121  -118.322
  107.000     0.000   -92.194  -124.062
  108.000     0.000   -92.198  -124.872
  109.000     0.000   -92.221  -131.642
  110.000     0.000   -91.990  -137.307
  111.000     0.000   -91.522  -144.242
  112.000     0.000   -90.983  -149.736
  113.000     0.000   -90.814  -154.928
  114.000     0.000   -90.220  -158.822
  115.000     0.000   -90.184  -159.396
  116.000     0.000   -89.785  -157.552
  117.000     0.000   -89.589  -155.532
  118.000     0.000   -89.028  -152.277
  119.000     0.000   -88.583  -148.523
  120.000     0.000   -88.189  -146.840
  121.000     0.000   -87.859  -144.291
  122.000     0.000   -87.562  -143.845
  123.000     0.000   -87.955  -145.899
  124.000     0.000   -88.482  -146.688
  125.000     0.000   -89.598  -146.582
  126.000     0.000   -91.598  -147.001
  127.000     0.000   -94.136  -146.141
  128.000     0.000   -97.760  -143.102
  129.000     0.000  -104.682  -131.589
  130.000     0.000  -110.025   -33.554
  131.000     0.000  -103.382     3.684
  132.000     0.000   -99.094    17.270
  133.000     0.000   -97.063    28.265
  134.000     0.000   -95.278    35.025
  135.000     0.000   -93.801    41.674
  136.000     0.000   -92.187    50.931
  137.000     0.000   -90.862    55.601
  138.000     0.000   -89.673    60.660
  139.000     0.000   -89.011    63.646
  140.000     0.000   -88.451    64.703
  141.000     0.000   -87.867    66.226
  142.000     0.000   -87.941    67.519
  143.000     0.000   -87.933    70.387
  144.000     0.000   -87.855    73.519
  145.000     0.000   -87.843    77.930
  146.000     0.000   -88.023    80.951
  147.000     0.000   -87.638    85.159
  148.000     0.000   -87.314    86.568
  149.000     0.000   -87.027    89.905
  150.000     0.000   -86.591    88.368
  151.000     0.000   -86.306    87.379
  152.000     0.000   -86.121    85.725
  153.000     0.000   -85.908    82.836
  154.000     0.000   -85.799    80.264
  155.000     0.000   -85.871    77.351
  156.000     0.000   -86.218    74.033
  157.000     0.000   -86.452    71.680
  158.000     0.000   -86.967    67.866
  159.000     0.000   -87.663    65.817
  160.000     0.000   -88.175    67.747
  161.000     0.000   -88.819    65.073
  162.000     0.000   -89.589    67.210
  163.000     0.000   -90.431    69.476
  164.000     0.000   -90.877    75.010
  165.000     0.000   -91.298    79.905
  166.000     0.000   -91.358    85.245
  167.000     0.000   -91.352    91.357
  168.000     0.000   -91.082    96.151
  169.000     0.000   -91.088   101.667
  170.000     0.000   -90.496   104.566
  171.000     0.000   -90.392   106.278
  172.000     0.000   -90.022   107.205
  173.000     0.000   -89.688   107.550
  174.000     0.000   -89.479   108.498
  175.000     0.000   -89.472   108.116
  176.000     0.000   -89.268   109.064
  177.000     0.000   -89.231   107.606
  178.000     0.000   -89.379   106.192
  179.000     0.000   -89.511   105.294
  180.000     0.000   -89.483   105.406
