Far-field amplitude, Eprincipal: Linear, Tau = 0.000  deg
Gain = None  Max far-field (global) = -74.77044  dB, Max far-field (plot) = -74.77044  dB
Normalization: None, Network offset = 0.000  dB
Hpeak at: -0.00001  deg, Vpeak at: 0.000  deg
Plot centering: On
Directivity = 225.230  dB


2R_u2_hpol_1-20G

NSI2000 V4.8.6, Filename:C:\Users\Kabourek\Prusa\R100_horn_black_H.NSI
Measurement date/time: 4/11/2017 3:30:21 PM, Filetype: NSI-97
Far-field Cut Analysis: 
Far-field display setup
   Theta (deg)
     Span = 360.00001  deg, Center = 0.000  deg, #pts = 361    
     Start= -180.00001  deg, Stop = 180.00001  deg, Delta = 1.000  deg
   Phi (deg)
     Center = 0.000  deg, #pts = 1    

Selected beam(s) 1 of 9
Beam    Frequency        Azimuth  Phi  Pol
----    ---------        -------  ---  ---
5       10.0000000  GHz  Azimuth  Phi     Single-pol

Measured data:
   Theta (deg)
     Span = 360.00001  deg, Center = 0.000  deg, #pts = 361    
     Start= -180.00001  deg, Stop = 180.00001  deg, Delta = 1.000  deg
   Phi (deg)
     Center = 0.000  deg, #pts = 1    
   Far-field distance: 3.000  m

Measurement type: FF Spherical Theta-Phi
Scan options: CV On, CP On, Bi-dir Off, H-scan 
Beamset smear: 0.45523  deg

RF system:
Integration time: 10.000 mSec
Scan speed: 4.000  deg/sec
Drift during scan (final - initial)
Amp/Phase initial =  -69.03  dB,  61.7  deg
Amp/Phase drift   =  -0.02  dB,  -0.2  deg


   Theta (deg)  Phi (deg)    Amp      Phase   P-pol Data starts on next line:
 -180.000     0.000   -96.886    45.394
 -179.000     0.000   -97.127    47.836
 -178.000     0.000   -96.485    46.761
 -177.000     0.000   -96.925    47.888
 -176.000     0.000   -96.582    43.156
 -175.000     0.000   -96.728    48.036
 -174.000     0.000   -96.218    48.660
 -173.000     0.000   -96.313    45.512
 -172.000     0.000   -96.138    47.064
 -171.000     0.000   -95.847    45.386
 -170.000     0.000   -95.806    41.385
 -169.000     0.000   -96.250    46.352
 -168.000     0.000   -95.586    42.486
 -167.000     0.000   -96.148    46.970
 -166.000     0.000   -96.625    48.659
 -165.000     0.000   -96.027    47.328
 -164.000     0.000   -96.617    51.493
 -163.000     0.000   -96.744    55.749
 -162.000     0.000   -97.412    58.877
 -161.000     0.000   -96.976    59.453
 -160.000     0.000   -97.064    63.411
 -159.000     0.000   -97.731    68.126
 -158.000     0.000   -97.868    70.818
 -157.000     0.000   -98.288    66.421
 -156.000     0.000   -98.666    74.983
 -155.000     0.000   -98.302    75.572
 -154.000     0.000   -98.350    72.432
 -153.000     0.000   -98.090    77.230
 -152.000     0.000   -98.297    78.385
 -151.000     0.000   -97.564    74.640
 -150.000     0.000   -97.681    75.065
 -149.000     0.000   -97.364    79.084
 -148.000     0.000   -96.685    76.396
 -147.000     0.000   -97.093    74.896
 -146.000     0.000   -97.209    74.913
 -145.000     0.000   -96.861    70.862
 -144.000     0.000   -96.818    69.697
 -143.000     0.000   -96.704    65.289
 -142.000     0.000   -97.456    61.689
 -141.000     0.000   -97.327    59.583
 -140.000     0.000   -97.862    52.987
 -139.000     0.000   -97.465    45.110
 -138.000     0.000   -98.096    42.246
 -137.000     0.000   -98.068    36.389
 -136.000     0.000   -97.897    31.398
 -135.000     0.000   -98.611    26.327
 -134.000     0.000   -98.594    21.034
 -133.000     0.000   -99.191     5.533
 -132.000     0.000   -99.175     0.879
 -131.000     0.000   -99.433    -4.682
 -130.000     0.000   -99.502   -11.190
 -129.000     0.000   -99.690   -14.890
 -128.000     0.000   -99.874   -23.009
 -127.000     0.000  -100.796   -21.053
 -126.000     0.000  -100.949   -21.819
 -125.000     0.000  -102.711   -27.696
 -124.000     0.000  -103.743   -32.754
 -123.000     0.000  -103.931   -40.430
 -122.000     0.000  -104.910   -49.145
 -121.000     0.000  -105.880   -54.780
 -120.000     0.000  -104.447   -56.787
 -119.000     0.000  -105.205   -53.856
 -118.000     0.000  -104.514   -58.846
 -117.000     0.000  -104.695   -60.753
 -116.000     0.000  -104.006   -61.244
 -115.000     0.000  -104.302   -67.238
 -114.000     0.000  -104.030   -59.959
 -113.000     0.000  -102.955   -68.222
 -112.000     0.000  -102.524   -66.609
 -111.000     0.000  -102.344   -75.668
 -110.000     0.000  -101.860   -83.117
 -109.000     0.000  -101.906   -85.978
 -108.000     0.000  -103.033   -95.615
 -107.000     0.000  -102.449   -96.174
 -106.000     0.000  -103.146  -113.607
 -105.000     0.000  -103.751  -128.876
 -104.000     0.000  -101.028  -132.963
 -103.000     0.000  -101.365  -137.768
 -102.000     0.000  -102.049  -139.140
 -101.000     0.000  -102.770  -142.319
 -100.000     0.000  -104.683  -149.779
  -99.000     0.000  -105.966  -167.859
  -98.000     0.000  -107.124  -172.390
  -97.000     0.000  -107.110   145.756
  -96.000     0.000  -105.203   130.496
  -95.000     0.000  -103.608   124.286
  -94.000     0.000  -102.510   121.108
  -93.000     0.000  -102.393   117.316
  -92.000     0.000  -103.242   104.936
  -91.000     0.000  -104.178   106.604
  -90.000     0.000  -103.164    83.029
  -89.000     0.000  -102.749    70.817
  -88.000     0.000  -100.227    62.937
  -87.000     0.000  -100.128    57.644
  -86.000     0.000   -99.141    56.715
  -85.000     0.000   -98.827    60.720
  -84.000     0.000   -98.394    64.360
  -83.000     0.000   -98.060    62.962
  -82.000     0.000   -98.815    62.157
  -81.000     0.000   -99.487    56.172
  -80.000     0.000   -99.115    54.338
  -79.000     0.000  -100.340    48.031
  -78.000     0.000   -99.305    42.996
  -77.000     0.000   -98.167    46.290
  -76.000     0.000   -97.660    38.894
  -75.000     0.000   -97.354    44.491
  -74.000     0.000   -97.411    41.124
  -73.000     0.000   -97.591    45.510
  -72.000     0.000   -98.062    49.887
  -71.000     0.000   -98.939    51.771
  -70.000     0.000   -99.540    50.461
  -69.000     0.000  -100.284    50.139
  -68.000     0.000  -101.863    45.875
  -67.000     0.000  -103.408    40.394
  -66.000     0.000  -103.926    21.677
  -65.000     0.000  -106.174     7.492
  -64.000     0.000  -105.957     1.402
  -63.000     0.000  -106.519    -5.889
  -62.000     0.000  -106.786     2.574
  -61.000     0.000  -107.914    19.419
  -60.000     0.000  -115.580    20.689
  -59.000     0.000  -111.016    96.493
  -58.000     0.000  -106.054   133.809
  -57.000     0.000  -101.495   155.227
  -56.000     0.000   -99.369   162.299
  -55.000     0.000   -97.184   176.476
  -54.000     0.000   -95.364   178.628
  -53.000     0.000   -94.734  -175.011
  -52.000     0.000   -94.201  -172.639
  -51.000     0.000   -94.304  -168.673
  -50.000     0.000   -95.017  -167.938
  -49.000     0.000   -95.404  -166.333
  -48.000     0.000   -96.758  -172.729
  -47.000     0.000   -97.489  -175.968
  -46.000     0.000   -97.277   172.363
  -45.000     0.000   -96.259   164.722
  -44.000     0.000   -96.039   156.352
  -43.000     0.000   -95.378   149.261
  -42.000     0.000   -94.294   150.004
  -41.000     0.000   -93.587   144.861
  -40.000     0.000   -92.921   143.487
  -39.000     0.000   -92.261   141.919
  -38.000     0.000   -91.631   142.520
  -37.000     0.000   -90.733   142.792
  -36.000     0.000   -89.832   144.377
  -35.000     0.000   -88.903   144.162
  -34.000     0.000   -88.368   148.241
  -33.000     0.000   -87.853   151.925
  -32.000     0.000   -87.342   156.187
  -31.000     0.000   -87.188   161.234
  -30.000     0.000   -87.091   166.068
  -29.000     0.000   -87.029   171.422
  -28.000     0.000   -87.055   176.335
  -27.000     0.000   -87.368  -178.205
  -26.000     0.000   -87.894  -172.420
  -25.000     0.000   -88.243  -167.217
  -24.000     0.000   -88.600  -161.317
  -23.000     0.000   -89.317  -154.043
  -22.000     0.000   -89.771  -147.457
  -21.000     0.000   -90.108  -141.100
  -20.000     0.000   -90.103  -133.490
  -19.000     0.000   -89.859  -121.442
  -18.000     0.000   -89.523  -111.174
  -17.000     0.000   -88.342  -102.201
  -16.000     0.000   -87.402   -92.766
  -15.000     0.000   -85.884   -83.657
  -14.000     0.000   -84.500   -75.607
  -13.000     0.000   -83.349   -68.888
  -12.000     0.000   -82.111   -63.440
  -11.000     0.000   -80.886   -58.379
  -10.000     0.000   -79.853   -53.886
   -9.000     0.000   -78.870   -49.983
   -8.000     0.000   -77.999   -46.296
   -7.000     0.000   -77.303   -43.650
   -6.000     0.000   -76.643   -40.807
   -5.000     0.000   -76.054   -38.683
   -4.000     0.000   -75.625   -36.952
   -3.000     0.000   -75.294   -35.647
   -2.000     0.000   -75.058   -34.982
   -1.000     0.000   -74.865   -34.435
    0.000     0.000   -74.770   -34.430
    1.000     0.000   -74.825   -35.142
    2.000     0.000   -74.911   -35.899
    3.000     0.000   -75.101   -36.984
    4.000     0.000   -75.385   -38.782
    5.000     0.000   -75.781   -41.371
    6.000     0.000   -76.289   -43.844
    7.000     0.000   -76.806   -46.634
    8.000     0.000   -77.489   -49.971
    9.000     0.000   -78.345   -54.068
   10.000     0.000   -79.229   -58.674
   11.000     0.000   -80.146   -63.232
   12.000     0.000   -81.239   -68.562
   13.000     0.000   -82.510   -74.092
   14.000     0.000   -83.697   -80.712
   15.000     0.000   -84.915   -89.731
   16.000     0.000   -86.406   -98.569
   17.000     0.000   -87.612  -107.710
   18.000     0.000   -88.689  -117.900
   19.000     0.000   -89.527  -129.978
   20.000     0.000   -89.843  -140.106
   21.000     0.000   -90.108  -150.451
   22.000     0.000   -90.205  -160.703
   23.000     0.000   -89.575  -169.301
   24.000     0.000   -89.234  -176.603
   25.000     0.000   -88.469   177.446
   26.000     0.000   -88.004   170.865
   27.000     0.000   -87.461   166.138
   28.000     0.000   -87.053   159.273
   29.000     0.000   -86.680   153.536
   30.000     0.000   -86.613   147.034
   31.000     0.000   -86.797   141.936
   32.000     0.000   -86.930   136.969
   33.000     0.000   -87.341   131.864
   34.000     0.000   -87.858   126.375
   35.000     0.000   -88.448   123.112
   36.000     0.000   -89.230   121.956
   37.000     0.000   -90.157   118.632
   38.000     0.000   -91.484   121.559
   39.000     0.000   -92.134   119.965
   40.000     0.000   -92.924   121.026
   41.000     0.000   -94.141   124.662
   42.000     0.000   -94.325   128.030
   43.000     0.000   -95.819   133.122
   44.000     0.000   -96.741   136.388
   45.000     0.000   -97.566   142.270
   46.000     0.000   -97.794   154.698
   47.000     0.000   -98.058   166.145
   48.000     0.000   -97.561   174.955
   49.000     0.000   -96.740   175.578
   50.000     0.000   -95.560   177.581
   51.000     0.000   -95.213   173.750
   52.000     0.000   -95.424   169.746
   53.000     0.000   -95.864   166.413
   54.000     0.000   -96.629   160.133
   55.000     0.000   -97.840   151.562
   56.000     0.000  -100.036   142.001
   57.000     0.000  -103.314   126.297
   58.000     0.000  -108.879   109.812
   59.000     0.000  -119.052    50.190
   60.000     0.000  -108.423   -24.093
   61.000     0.000  -105.873   -36.911
   62.000     0.000  -105.686   -43.807
   63.000     0.000  -104.971   -50.345
   64.000     0.000  -105.957   -55.782
   65.000     0.000  -106.566   -49.826
   66.000     0.000  -109.607   -39.770
   67.000     0.000  -110.096   -11.351
   68.000     0.000  -109.094   -13.901
   69.000     0.000  -107.644     2.153
   70.000     0.000  -104.900    12.375
   71.000     0.000  -102.733     2.641
   72.000     0.000  -101.451     4.062
   73.000     0.000  -100.232    -5.804
   74.000     0.000   -99.665    -9.654
   75.000     0.000   -99.445    -7.919
   76.000     0.000  -100.210   -20.491
   77.000     0.000  -100.735   -20.371
   78.000     0.000  -100.360   -22.940
   79.000     0.000  -101.396   -26.390
   80.000     0.000  -101.396   -23.127
   81.000     0.000  -101.544   -13.376
   82.000     0.000  -101.025    -8.365
   83.000     0.000  -100.498    -0.428
   84.000     0.000   -99.584    -0.561
   85.000     0.000  -100.130    -0.558
   86.000     0.000  -100.046    -7.024
   87.000     0.000   -99.833    -7.675
   88.000     0.000  -100.888    -9.859
   89.000     0.000  -102.922   -13.582
   90.000     0.000  -104.542    -2.606
   91.000     0.000  -104.991     3.653
   92.000     0.000  -106.713    17.065
   93.000     0.000  -107.825    26.845
   94.000     0.000  -106.363    38.277
   95.000     0.000  -106.179    43.628
   96.000     0.000  -106.695    30.728
   97.000     0.000  -108.651    34.271
   98.000     0.000  -110.530    33.820
   99.000     0.000  -128.356    44.256
  100.000     0.000  -120.182   156.401
  101.000     0.000  -111.344   166.112
  102.000     0.000  -111.525   176.023
  103.000     0.000  -109.025   166.165
  104.000     0.000  -108.043  -164.825
  105.000     0.000  -106.297  -172.101
  106.000     0.000  -106.302  -154.792
  107.000     0.000  -108.050  -143.849
  108.000     0.000  -107.322  -130.534
  109.000     0.000  -106.286  -115.232
  110.000     0.000  -105.059  -119.648
  111.000     0.000  -105.537  -123.636
  112.000     0.000  -106.738  -115.167
  113.000     0.000  -107.034  -113.742
  114.000     0.000  -105.989  -114.140
  115.000     0.000  -105.714  -100.087
  116.000     0.000  -105.507  -106.685
  117.000     0.000  -107.877  -117.659
  118.000     0.000  -105.605  -122.441
  119.000     0.000  -106.485  -112.783
  120.000     0.000  -106.379  -115.100
  121.000     0.000  -105.716  -127.888
  122.000     0.000  -104.724  -115.586
  123.000     0.000  -104.584  -102.517
  124.000     0.000  -103.751   -87.103
  125.000     0.000  -102.760   -85.881
  126.000     0.000  -102.049   -70.383
  127.000     0.000  -100.666   -67.690
  128.000     0.000  -100.063   -63.636
  129.000     0.000   -98.519   -56.717
  130.000     0.000   -98.868   -47.780
  131.000     0.000   -98.532   -46.305
  132.000     0.000   -97.748   -37.577
  133.000     0.000   -97.663   -32.561
  134.000     0.000   -96.899   -23.414
  135.000     0.000   -96.883   -16.048
  136.000     0.000   -96.434    -8.127
  137.000     0.000   -96.377    -0.282
  138.000     0.000   -96.159     7.755
  139.000     0.000   -95.559     9.897
  140.000     0.000   -95.540    18.153
  141.000     0.000   -95.333    22.303
  142.000     0.000   -95.392    33.607
  143.000     0.000   -95.143    35.791
  144.000     0.000   -95.203    37.966
  145.000     0.000   -94.713    40.636
  146.000     0.000   -94.805    46.207
  147.000     0.000   -95.249    49.064
  148.000     0.000   -95.586    54.364
  149.000     0.000   -95.795    57.362
  150.000     0.000   -95.679    58.754
  151.000     0.000   -96.163    59.893
  152.000     0.000   -96.892    60.013
  153.000     0.000   -97.721    62.935
  154.000     0.000   -97.403    65.952
  155.000     0.000   -98.536    62.903
  156.000     0.000   -99.294    64.041
  157.000     0.000   -99.292    66.600
  158.000     0.000   -98.988    57.816
  159.000     0.000   -98.624    57.617
  160.000     0.000   -98.973    54.923
  161.000     0.000   -98.692    49.963
  162.000     0.000   -99.751    47.442
  163.000     0.000   -99.229    46.895
  164.000     0.000   -98.419    42.364
  165.000     0.000   -98.354    33.318
  166.000     0.000   -98.489    29.851
  167.000     0.000   -98.503    30.932
  168.000     0.000   -97.891    30.831
  169.000     0.000   -98.580    30.259
  170.000     0.000   -98.375    30.596
  171.000     0.000   -98.086    33.623
  172.000     0.000   -98.252    35.105
  173.000     0.000   -97.560    37.219
  174.000     0.000   -98.092    34.016
  175.000     0.000   -97.800    38.979
  176.000     0.000   -97.831    41.866
  177.000     0.000   -97.682    40.964
  178.000     0.000   -97.467    45.493
  179.000     0.000   -97.879    46.582
  180.000     0.000   -96.341    45.946
