Far-field amplitude, Eprincipal: Linear, Tau = 0.000  deg
Gain = None  Max far-field (global) = -68.34148  dB, Max far-field (plot) = -68.34148  dB
Normalization: None, Network offset = 0.000  dB
Hpeak at: 1.99999  deg, Vpeak at: 0.000  deg
Plot centering: On
Directivity = 231.659  dB


2R_u2_hpol_1-20G

NSI2000 V4.8.6, Filename:C:\Users\Kabourek\Prusa\R100_horn_emi_E.NSI
Measurement date/time: 4/11/2017 3:17:17 PM, Filetype: NSI-97
Far-field Cut Analysis: 
Far-field display setup
   Theta (deg)
     Span = 360.00001  deg, Center = 0.000  deg, #pts = 361    
     Start= -180.00001  deg, Stop = 180.00001  deg, Delta = 1.000  deg
   Phi (deg)
     Center = 0.000  deg, #pts = 1    

Selected beam(s) 1 of 9
Beam    Frequency        Azimuth  Phi  Pol
----    ---------        -------  ---  ---
5       10.0000000  GHz  Azimuth  Phi     Single-pol

Measured data:
   Theta (deg)
     Span = 360.00001  deg, Center = 0.000  deg, #pts = 361    
     Start= -180.00001  deg, Stop = 180.00001  deg, Delta = 1.000  deg
   Phi (deg)
     Center = 0.000  deg, #pts = 1    
   Far-field distance: 3.000  m

Measurement type: FF Spherical Theta-Phi
Scan options: CV On, CP On, Bi-dir Off, H-scan 
Beamset smear: 0.45523  deg

RF system:
Integration time: 10.000 mSec
Scan speed: 4.000  deg/sec
Drift during scan (final - initial)
Amp/Phase initial =  -66.16  dB,  165.2  deg
Amp/Phase drift   =  0.00  dB,  -0.2  deg


   Theta (deg)  Phi (deg)    Amp      Phase   P-pol Data starts on next line:
 -180.000     0.000   -89.356    25.018
 -179.000     0.000   -89.412    22.861
 -178.000     0.000   -89.619    21.762
 -177.000     0.000   -89.626    18.704
 -176.000     0.000   -89.687    16.811
 -175.000     0.000   -90.451    13.218
 -174.000     0.000   -90.519     9.909
 -173.000     0.000   -91.269     5.217
 -172.000     0.000   -91.502     1.475
 -171.000     0.000   -91.459    -3.912
 -170.000     0.000   -91.577    -9.887
 -169.000     0.000   -91.281   -16.160
 -168.000     0.000   -90.933   -18.384
 -167.000     0.000   -90.483   -21.201
 -166.000     0.000   -90.413   -21.934
 -165.000     0.000   -89.877   -20.040
 -164.000     0.000   -89.953   -17.283
 -163.000     0.000   -89.711   -11.551
 -162.000     0.000   -89.777    -3.316
 -161.000     0.000   -89.822     5.576
 -160.000     0.000   -89.857    16.462
 -159.000     0.000   -89.888    27.869
 -158.000     0.000   -89.536    40.939
 -157.000     0.000   -89.572    55.983
 -156.000     0.000   -88.772    69.409
 -155.000     0.000   -88.277    79.615
 -154.000     0.000   -88.075    90.737
 -153.000     0.000   -87.651   100.810
 -152.000     0.000   -87.474   108.275
 -151.000     0.000   -87.639   112.718
 -150.000     0.000   -87.998   114.495
 -149.000     0.000   -88.648   115.715
 -148.000     0.000   -89.416   111.698
 -147.000     0.000   -90.109   104.649
 -146.000     0.000   -89.993    93.944
 -145.000     0.000   -88.989    82.903
 -144.000     0.000   -87.896    77.599
 -143.000     0.000   -87.015    75.301
 -142.000     0.000   -86.237    76.285
 -141.000     0.000   -85.691    79.870
 -140.000     0.000   -85.835    83.811
 -139.000     0.000   -86.120    88.192
 -138.000     0.000   -86.720    93.486
 -137.000     0.000   -87.830    95.519
 -136.000     0.000   -89.489    96.679
 -135.000     0.000   -90.967    92.484
 -134.000     0.000   -91.851    87.130
 -133.000     0.000   -91.719    78.626
 -132.000     0.000   -90.920    75.085
 -131.000     0.000   -89.564    77.900
 -130.000     0.000   -88.284    81.942
 -129.000     0.000   -87.125    91.058
 -128.000     0.000   -86.605    98.459
 -127.000     0.000   -85.965   106.816
 -126.000     0.000   -86.009   113.218
 -125.000     0.000   -86.369   118.039
 -124.000     0.000   -87.373   118.974
 -123.000     0.000   -88.407   112.367
 -122.000     0.000   -88.924    99.900
 -121.000     0.000   -88.418    85.776
 -120.000     0.000   -86.912    76.068
 -119.000     0.000   -85.601    73.508
 -118.000     0.000   -84.816    73.214
 -117.000     0.000   -84.587    76.695
 -116.000     0.000   -85.012    77.727
 -115.000     0.000   -86.196    79.611
 -114.000     0.000   -87.924    74.031
 -113.000     0.000   -90.003    60.483
 -112.000     0.000   -90.962    38.798
 -111.000     0.000   -89.427    16.600
 -110.000     0.000   -87.538    10.980
 -109.000     0.000   -86.284     8.644
 -108.000     0.000   -85.727    10.157
 -107.000     0.000   -86.024     9.653
 -106.000     0.000   -86.806     7.248
 -105.000     0.000   -87.841    -2.187
 -104.000     0.000   -87.934   -16.743
 -103.000     0.000   -86.464   -30.680
 -102.000     0.000   -84.731   -37.427
 -101.000     0.000   -83.002   -37.453
 -100.000     0.000   -82.046   -35.421
  -99.000     0.000   -81.641   -31.811
  -98.000     0.000   -81.779   -28.945
  -97.000     0.000   -82.510   -27.655
  -96.000     0.000   -83.738   -30.794
  -95.000     0.000   -85.250   -40.957
  -94.000     0.000   -85.771   -58.091
  -93.000     0.000   -84.969   -75.208
  -92.000     0.000   -83.225   -84.508
  -91.000     0.000   -82.061   -87.352
  -90.000     0.000   -81.347   -86.795
  -89.000     0.000   -81.312   -85.824
  -88.000     0.000   -82.012   -85.908
  -87.000     0.000   -83.278   -89.536
  -86.000     0.000   -84.711  -101.675
  -85.000     0.000   -85.301  -118.944
  -84.000     0.000   -84.371  -137.104
  -83.000     0.000   -82.628  -145.723
  -82.000     0.000   -81.440  -148.538
  -81.000     0.000   -80.669  -147.578
  -80.000     0.000   -80.702  -145.264
  -79.000     0.000   -81.504  -143.360
  -78.000     0.000   -82.926  -144.909
  -77.000     0.000   -85.294  -153.127
  -76.000     0.000   -86.941  -174.827
  -75.000     0.000   -86.098   157.567
  -74.000     0.000   -83.700   144.331
  -73.000     0.000   -81.605   141.386
  -72.000     0.000   -80.510   143.618
  -71.000     0.000   -80.179   147.235
  -70.000     0.000   -80.670   151.525
  -69.000     0.000   -81.981   154.865
  -68.000     0.000   -84.502   152.215
  -67.000     0.000   -87.948   137.370
  -66.000     0.000   -89.522    98.634
  -65.000     0.000   -85.933    69.472
  -64.000     0.000   -82.788    63.548
  -63.000     0.000   -80.722    64.906
  -62.000     0.000   -79.726    69.027
  -61.000     0.000   -79.315    72.975
  -60.000     0.000   -79.741    75.789
  -59.000     0.000   -80.872    77.039
  -58.000     0.000   -82.640    72.303
  -57.000     0.000   -84.519    57.533
  -56.000     0.000   -85.002    34.968
  -55.000     0.000   -83.608    14.911
  -54.000     0.000   -81.565     4.597
  -53.000     0.000   -80.045     1.043
  -52.000     0.000   -79.065     0.578
  -51.000     0.000   -78.530     0.275
  -50.000     0.000   -78.507    -1.202
  -49.000     0.000   -78.801    -3.439
  -48.000     0.000   -79.072    -7.397
  -47.000     0.000   -79.279   -12.284
  -46.000     0.000   -79.410   -17.845
  -45.000     0.000   -79.301   -22.599
  -44.000     0.000   -79.470   -25.567
  -43.000     0.000   -79.768   -26.511
  -42.000     0.000   -80.514   -28.436
  -41.000     0.000   -81.898   -30.147
  -40.000     0.000   -83.848   -36.805
  -39.000     0.000   -86.321   -52.644
  -38.000     0.000   -87.312   -81.428
  -37.000     0.000   -85.008  -107.154
  -36.000     0.000   -82.001  -116.971
  -35.000     0.000   -79.733  -118.488
  -34.000     0.000   -78.075  -116.316
  -33.000     0.000   -76.853  -111.458
  -32.000     0.000   -75.997  -105.707
  -31.000     0.000   -75.564   -99.026
  -30.000     0.000   -75.314   -92.076
  -29.000     0.000   -75.301   -85.002
  -28.000     0.000   -75.536   -78.037
  -27.000     0.000   -76.035   -71.567
  -26.000     0.000   -76.596   -64.911
  -25.000     0.000   -77.440   -59.674
  -24.000     0.000   -78.379   -54.865
  -23.000     0.000   -79.400   -51.368
  -22.000     0.000   -80.424   -49.279
  -21.000     0.000   -81.379   -48.569
  -20.000     0.000   -82.069   -49.723
  -19.000     0.000   -82.277   -51.153
  -18.000     0.000   -81.979   -51.766
  -17.000     0.000   -81.412   -49.762
  -16.000     0.000   -80.522   -46.724
  -15.000     0.000   -79.422   -42.136
  -14.000     0.000   -78.401   -36.525
  -13.000     0.000   -77.244   -31.503
  -12.000     0.000   -76.207   -25.181
  -11.000     0.000   -75.117   -19.176
  -10.000     0.000   -74.127   -14.065
   -9.000     0.000   -73.194    -9.328
   -8.000     0.000   -72.318    -5.373
   -7.000     0.000   -71.528    -1.716
   -6.000     0.000   -70.843     1.276
   -5.000     0.000   -70.209     3.905
   -4.000     0.000   -69.700     5.492
   -3.000     0.000   -69.275     6.950
   -2.000     0.000   -68.913     7.857
   -1.000     0.000   -68.651     8.039
    0.000     0.000   -68.474     7.861
    1.000     0.000   -68.367     7.253
    2.000     0.000   -68.341     6.014
    3.000     0.000   -68.423     4.190
    4.000     0.000   -68.577     2.318
    5.000     0.000   -68.799    -0.274
    6.000     0.000   -69.131    -3.163
    7.000     0.000   -69.547    -6.543
    8.000     0.000   -70.057   -10.248
    9.000     0.000   -70.663   -14.317
   10.000     0.000   -71.378   -18.803
   11.000     0.000   -72.202   -23.394
   12.000     0.000   -73.178   -28.305
   13.000     0.000   -74.245   -33.482
   14.000     0.000   -75.574   -38.466
   15.000     0.000   -76.971   -44.166
   16.000     0.000   -78.634   -49.419
   17.000     0.000   -80.464   -54.287
   18.000     0.000   -82.324   -58.890
   19.000     0.000   -84.372   -60.573
   20.000     0.000   -86.114   -61.858
   21.000     0.000   -87.570   -62.772
   22.000     0.000   -88.129   -63.660
   23.000     0.000   -87.753   -66.312
   24.000     0.000   -87.015   -75.166
   25.000     0.000   -85.724   -85.471
   26.000     0.000   -84.333   -97.660
   27.000     0.000   -83.047  -110.392
   28.000     0.000   -81.717  -122.253
   29.000     0.000   -80.565  -135.267
   30.000     0.000   -79.741  -147.414
   31.000     0.000   -79.142  -158.735
   32.000     0.000   -78.772  -171.081
   33.000     0.000   -78.725   177.152
   34.000     0.000   -79.042   164.735
   35.000     0.000   -79.643   151.468
   36.000     0.000   -80.722   137.652
   37.000     0.000   -82.158   122.171
   38.000     0.000   -84.375   103.260
   39.000     0.000   -86.911    79.305
   40.000     0.000   -89.638    43.624
   41.000     0.000   -90.024    -0.626
   42.000     0.000   -88.598   -37.441
   43.000     0.000   -86.746   -62.421
   44.000     0.000   -85.717   -79.558
   45.000     0.000   -85.349   -92.781
   46.000     0.000   -85.718  -103.311
   47.000     0.000   -86.773  -109.772
   48.000     0.000   -88.325  -111.082
   49.000     0.000   -90.460  -103.905
   50.000     0.000   -91.450   -84.807
   51.000     0.000   -91.050   -69.403
   52.000     0.000   -90.064   -58.739
   53.000     0.000   -89.454   -56.915
   54.000     0.000   -89.625   -56.309
   55.000     0.000   -90.923   -50.699
   56.000     0.000   -93.355   -36.239
   57.000     0.000   -93.542     0.044
   58.000     0.000   -89.874    21.291
   59.000     0.000   -86.600    26.255
   60.000     0.000   -84.643    23.398
   61.000     0.000   -83.450    18.182
   62.000     0.000   -82.978    11.889
   63.000     0.000   -83.415     4.630
   64.000     0.000   -84.667    -1.484
   65.000     0.000   -87.244    -2.044
   66.000     0.000   -91.480     7.458
   67.000     0.000   -94.201    53.092
   68.000     0.000   -89.923    85.399
   69.000     0.000   -86.150    89.482
   70.000     0.000   -84.110    84.726
   71.000     0.000   -83.301    78.243
   72.000     0.000   -83.235    70.682
   73.000     0.000   -84.075    63.463
   74.000     0.000   -85.960    58.474
   75.000     0.000   -89.676    60.161
   76.000     0.000   -93.545    81.966
   77.000     0.000   -93.389   126.332
   78.000     0.000   -89.275   141.672
   79.000     0.000   -87.071   141.109
   80.000     0.000   -85.704   133.311
   81.000     0.000   -85.678   125.736
   82.000     0.000   -86.537   117.523
   83.000     0.000   -88.962   107.912
   84.000     0.000   -93.165   102.309
   85.000     0.000  -104.784   112.238
   86.000     0.000   -98.587  -114.640
   87.000     0.000   -91.462  -121.612
   88.000     0.000   -88.464  -127.477
   89.000     0.000   -87.401  -134.685
   90.000     0.000   -87.584  -141.522
   91.000     0.000   -88.495  -144.296
   92.000     0.000   -90.812  -142.187
   93.000     0.000   -93.860  -122.762
   94.000     0.000   -93.293   -92.323
   95.000     0.000   -90.964   -77.924
   96.000     0.000   -88.808   -75.654
   97.000     0.000   -87.840   -79.996
   98.000     0.000   -87.770   -87.060
   99.000     0.000   -88.855   -97.972
  100.000     0.000   -91.256  -108.793
  101.000     0.000   -95.075  -121.587
  102.000     0.000  -101.766  -139.653
  103.000     0.000  -111.903    48.164
  104.000     0.000  -100.001    29.144
  105.000     0.000   -96.222     6.428
  106.000     0.000   -94.967   -13.292
  107.000     0.000   -94.200   -34.685
  108.000     0.000   -94.432   -55.437
  109.000     0.000   -94.705   -75.553
  110.000     0.000   -96.230   -91.912
  111.000     0.000   -99.852  -112.408
  112.000     0.000  -106.643  -136.285
  113.000     0.000  -110.237    49.530
  114.000     0.000   -99.445    39.018
  115.000     0.000   -94.858    23.853
  116.000     0.000   -93.166    16.810
  117.000     0.000   -92.346     5.432
  118.000     0.000   -93.357    -3.500
  119.000     0.000   -95.799   -15.234
  120.000     0.000  -102.110   -18.678
  121.000     0.000  -115.893   129.778
  122.000     0.000  -100.363   132.214
  123.000     0.000   -95.601   124.001
  124.000     0.000   -93.138   121.183
  125.000     0.000   -92.414   114.000
  126.000     0.000   -93.118   105.495
  127.000     0.000   -94.791    98.830
  128.000     0.000   -97.389    96.157
  129.000     0.000  -103.286    96.568
  130.000     0.000  -110.019   170.139
  131.000     0.000  -103.855  -148.476
  132.000     0.000  -100.581  -147.580
  133.000     0.000   -99.729  -150.970
  134.000     0.000  -101.479  -159.891
  135.000     0.000  -106.838   169.902
  136.000     0.000  -110.069    72.440
  137.000     0.000  -101.618    33.008
  138.000     0.000   -96.726    23.285
  139.000     0.000   -94.432     9.494
  140.000     0.000   -93.218     3.612
  141.000     0.000   -92.312    -3.392
  142.000     0.000   -92.908   -12.684
  143.000     0.000   -93.835   -18.252
  144.000     0.000   -96.210   -28.807
  145.000     0.000   -99.985   -34.540
  146.000     0.000  -107.499   -28.946
  147.000     0.000  -112.191   117.485
  148.000     0.000  -101.921   123.543
  149.000     0.000   -98.171   118.874
  150.000     0.000   -95.460   113.251
  151.000     0.000   -94.262   106.387
  152.000     0.000   -94.061   102.153
  153.000     0.000   -94.020    97.204
  154.000     0.000   -94.556    91.761
  155.000     0.000   -95.435    89.130
  156.000     0.000   -96.266    92.190
  157.000     0.000   -98.952    93.898
  158.000     0.000   -99.851    99.405
  159.000     0.000  -101.444   116.875
  160.000     0.000  -100.586   134.145
  161.000     0.000   -99.225   140.988
  162.000     0.000   -98.446   143.444
  163.000     0.000   -96.724   145.249
  164.000     0.000   -96.383   136.648
  165.000     0.000   -95.144   136.036
  166.000     0.000   -94.984   129.938
  167.000     0.000   -94.879   121.165
  168.000     0.000   -94.639   113.456
  169.000     0.000   -94.046   104.889
  170.000     0.000   -94.079    93.132
  171.000     0.000   -93.319    78.699
  172.000     0.000   -93.215    71.441
  173.000     0.000   -92.486    61.558
  174.000     0.000   -91.928    52.023
  175.000     0.000   -91.236    46.437
  176.000     0.000   -90.616    40.491
  177.000     0.000   -90.170    35.524
  178.000     0.000   -90.009    33.884
  179.000     0.000   -89.526    28.569
  180.000     0.000   -89.409    24.625
